Frequency (Hz)	Level (dB)
43.066406	-123.776031
86.132812	-109.126724
129.199219	-101.086739
172.265625	-95.555519
215.332031	-95.334412
258.398438	-96.916496
301.464844	-96.605949
344.531250	-97.233467
387.597656	-94.398560
430.664062	-93.354904
473.730469	-92.881882
516.796875	-92.672768
559.863281	-91.990082
602.929688	-90.051445
645.996094	-88.110130
689.062500	-87.998222
732.128906	-88.657753
775.195312	-88.501732
818.261719	-88.568611 ----------Breathing data/ frequency present
861.328125	-87.273247
904.394531	-86.798553
947.460938	-84.794075
990.527344	-83.333519
1033.593750	-84.224396
1076.660156	-84.941803
1119.726562	-86.075127
1162.792969	-86.741638
1205.859375	-85.455368
1248.925781	-83.869705
1291.992188	-82.561844
1335.058594	-81.596413
1378.125000	-82.524055
1421.191406	-83.099800
1464.257812	-82.320679
1507.324219	-82.446594
1550.390625	-83.883682
1593.457031	-84.821144
1636.523438	-83.884132
1679.589844	-82.064384
1722.656250	-80.232185
1765.722656	-78.285568
1808.789062	-77.579353
1851.855469	-77.589371
1894.921875	-78.454170
1937.988281	-79.518753
1981.054688	-80.507790
2024.121094	-82.280449
2067.187500	-82.946930
2110.253906	-84.309425
2153.320312	-86.626656
2196.386719	-89.576080
2239.453125	-91.818939
2282.519531	-91.824844
2325.585938	-90.710220
2368.652344	-89.723251
2411.718750	-88.339958
2454.785156	-87.698975
2497.851562	-87.103355
2540.917969	-87.496948
2583.984375	-88.788452
2627.050781	-89.680290
2670.117188	-91.747993
2713.183594	-91.924080
2756.250000	-90.066353
2799.316406	-89.518707
2842.382812	-90.007851
2885.449219	-89.954224
2928.515625	-89.983841
2971.582031	-90.949783
3014.648438	-93.886963
3057.714844	-96.393471
3100.781250	-95.559555
3143.847656	-93.724930
3186.914062	-92.593796
3229.980469	-91.906273
3273.046875	-91.885033
3316.113281	-91.890778
3359.179688	-92.944298
3402.246094	-93.789711
3445.312500	-94.226921
3488.378906	-93.645958
3531.445312	-92.730652
3574.511719	-90.243301
3617.578125	-87.369438
3660.644531	-86.386337
3703.710938	-85.693634
3746.777344	-87.754036
3789.843750	-91.327614
3832.910156	-94.901985
3875.976562	-97.315895
3919.042969	-94.150627
3962.109375	-89.573547
4005.175781	-86.908295
4048.242188	-86.356644
4091.308594	-87.266617
4134.375000	-88.327148
4177.441406	-90.028732
4220.507812	-89.838295
4263.574219	-88.458649
4306.640625	-87.340164
4349.707031	-86.859985
4392.773438	-87.366844
4435.839844	-87.918861
4478.906250	-89.531502
4521.972656	-91.514450
4565.039062	-92.464989
4608.105469	-92.124672
4651.171875	-92.453384
4694.238281	-93.078598
4737.304688	-92.997223
4780.371094	-92.589218
4823.437500	-93.038589
4866.503906	-94.027771
4909.570312	-93.963852
4952.636719	-93.970329
4995.703125	-96.025566
5038.769531	-96.722534
5081.835938	-97.812927
5124.902344	-97.970108
5167.968750	-95.672295
5211.035156	-92.588547
5254.101562	-90.589027
5297.167969	-89.516212
5340.234375	-88.782959
5383.300781	-88.033638
5426.367188	-87.229958
5469.433594	-86.826248
5512.500000	-87.807777
5555.566406	-88.102509
5598.632812	-88.746010
5641.699219	-88.844147
5684.765625	-89.796623
5727.832031	-91.021698
5770.898438	-91.785446
5813.964844	-92.336990
5857.031250	-91.821495
5900.097656	-91.827637
5943.164062	-92.076187
5986.230469	-92.620949
6029.296875	-91.431557
6072.363281	-90.747871
6115.429688	-90.250816
6158.496094	-91.122116
6201.562500	-91.211952
6244.628906	-92.188545
6287.695312	-93.461380
6330.761719	-94.794662
6373.828125	-96.836876
6416.894531	-97.754578
6459.960938	-97.469482
6503.027344	-95.685806
6546.093750	-94.640594
6589.160156	-94.846832
6632.226562	-96.160210
6675.292969	-96.170105
6718.359375	-97.288925
6761.425781	-97.389687
6804.492188	-97.711700
6847.558594	-98.390335
6890.625000	-98.264046
6933.691406	-98.020309
6976.757812	-98.003548
7019.824219	-99.069550
7062.890625	-99.779671
7105.957031	-100.401070
7149.023438	-101.125114
7192.089844	-101.818581
7235.156250	-102.142647
7278.222656	-102.250916
7321.289062	-102.058144
7364.355469	-101.572792
7407.421875	-101.278450
7450.488281	-101.461861
7493.554688	-101.952072
7536.621094	-102.480515
7579.687500	-102.891869
7622.753906	-103.189438
7665.820312	-103.788689
7708.886719	-104.789566
7751.953125	-105.145653
7795.019531	-105.796219
7838.085938	-106.475800
7881.152344	-107.005714
7924.218750	-107.859489
7967.285156	-108.570259
8010.351562	-109.571709
8053.417969	-109.302170
8096.484375	-109.628685
8139.550781	-109.824966
8182.617188	-110.189240
8225.683594	-110.340759
8268.750000	-110.950409
8311.816406	-111.347023
8354.882812	-111.473412
8397.949219	-112.012245
8441.015625	-112.487770
8484.082031	-112.858467
8527.148438	-113.266296
8570.214844	-113.594322
8613.281250	-114.184120
8656.347656	-114.723534
8699.414062	-114.917175
8742.480469	-115.065956
8785.546875	-115.205559
8828.613281	-115.203316
8871.679688	-115.289665
8914.746094	-115.438644
8957.812500	-115.462471
9000.878906	-115.694725
9043.945312	-115.534019
9087.011719	-115.591225
9130.078125	-115.742599
9173.144531	-115.631340
9216.210938	-115.564774
9259.277344	-115.779350
9302.343750	-115.635429
9345.410156	-115.620354
9388.476562	-115.610146
9431.542969	-115.669876
9474.609375	-115.630920
9517.675781	-115.811005
9560.742188	-115.786736
9603.808594	-115.686630
9646.875000	-115.686852
9689.941406	-115.619751
9733.007812	-115.782982
9776.074219	-115.612350
9819.140625	-115.559265
9862.207031	-115.579376
9905.273438	-115.594749
9948.339844	-115.438744
9991.406250	-115.538269
10034.472656	-115.600334
10077.539062	-115.541939
10120.605469	-115.514778
10163.671875	-115.646172
10206.738281	-115.668701
10249.804688	-115.637543
10292.871094	-115.594421
10335.937500	-115.617355
10379.003906	-115.579720
10422.070312	-115.569748
10465.136719	-115.540581
10508.203125	-115.590385
10551.269531	-115.673912
10594.335938	-115.585167
10637.402344	-115.574913
10680.468750	-115.481903
10723.535156	-115.711899
10766.601562	-115.499023
10809.667969	-115.538872
10852.734375	-115.602722
10895.800781	-115.661255
10938.867188	-115.603996
10981.933594	-115.702576
11025.000000	-115.695572
11068.066406	-115.641640
11111.132812	-115.536568
11154.199219	-115.462761
11197.265625	-115.653351
11240.332031	-115.655739
11283.398438	-115.742599
11326.464844	-115.639420
11369.531250	-115.669556
11412.597656	-115.664818
11455.664062	-115.442116
11498.730469	-115.597153
11541.796875	-115.719910
11584.863281	-115.628403
11627.929688	-115.636658
11670.996094	-115.672745
11714.062500	-115.558289
11757.128906	-115.688919
11800.195312	-115.555130
11843.261719	-115.600189
11886.328125	-115.838402
11929.394531	-115.812431
11972.460938	-115.755890
12015.527344	-115.495415
12058.593750	-115.447464
12101.660156	-115.578430
12144.726562	-115.592636
12187.792969	-115.488922
12230.859375	-115.496902
12273.925781	-115.591026
12316.992188	-115.579948
12360.058594	-115.578209
12403.125000	-115.563210
12446.191406	-115.616478
12489.257812	-115.731148
12532.324219	-115.724731
12575.390625	-115.635063
12618.457031	-115.629364
12661.523438	-115.606377
12704.589844	-115.666054
12747.656250	-115.593330
12790.722656	-115.555824
12833.789062	-115.618652
12876.855469	-115.464447
12919.921875	-115.441734
12962.988281	-115.586258
13006.054688	-115.630058
13049.121094	-115.669373
13092.187500	-115.603958
13135.253906	-115.672577
13178.320312	-115.586800
13221.386719	-115.637375
13264.453125	-115.729462
13307.519531	-115.721184
13350.585938	-115.563606
13393.652344	-115.603752
13436.718750	-115.759918
13479.785156	-115.656395
13522.851562	-115.682289
13565.917969	-115.675896
13608.984375	-115.680107
13652.050781	-115.741180
13695.117188	-115.587776
13738.183594	-115.518524
13781.250000	-115.639328
13824.316406	-115.605255
13867.382812	-115.611588
13910.449219	-115.531242
13953.515625	-115.649254
13996.582031	-115.696320
14039.648438	-115.631622
14082.714844	-115.661346
14125.781250	-115.694450
14168.847656	-115.602936
14211.914062	-115.685959
14254.980469	-115.761185
14298.046875	-115.831207
14341.113281	-115.701134
14384.179688	-115.717155
14427.246094	-115.550507
14470.312500	-115.418571
14513.378906	-115.521439
14556.445312	-115.569641
14599.511719	-115.521431
14642.578125	-115.426445
14685.644531	-115.615143
14728.710938	-115.517570
14771.777344	-115.483788
14814.843750	-115.590088
14857.910156	-115.457008
14900.976562	-115.369354
14944.042969	-115.465240
14987.109375	-115.667320
15030.175781	-115.645363
15073.242188	-115.523796
15116.308594	-115.496780
15159.375000	-115.533897
15202.441406	-115.576866
15245.507812	-115.646332
15288.574219	-115.535530
15331.640625	-115.632080
15374.707031	-115.696060
15417.773438	-115.651352
15460.839844	-115.676880
15503.906250	-115.701233
15546.972656	-115.725273
15590.039062	-115.443153
15633.105469	-115.547432
15676.171875	-115.667877
15719.238281	-115.472015
15762.304688	-115.453766
15805.371094	-115.518669
15848.437500	-115.479126
15891.503906	-115.662064
15934.570312	-115.825226
15977.636719	-115.760849
16020.703125	-115.638519
16063.769531	-115.625191
16106.835938	-115.781120
16149.902344	-115.679901
16192.968750	-115.754601
16236.035156	-115.646774
16279.101562	-115.582321
16322.167969	-115.673271
16365.234375	-115.789879
16408.300781	-115.691185
16451.367188	-115.422813
16494.433594	-115.538910
16537.500000	-115.696053
16580.566406	-115.624786
16623.632812	-115.566933
16666.699219	-115.600128
16709.765625	-115.567924
16752.832031	-115.653595
16795.898438	-115.619240
16838.964844	-115.684097
16882.031250	-115.669724
16925.097656	-115.694016
16968.164062	-115.686493
17011.230469	-115.625519
17054.296875	-115.725700
17097.363281	-115.740082
17140.429688	-115.688911
17183.496094	-115.578545
17226.562500	-115.553757
17269.628906	-115.561844
17312.695312	-115.480888
17355.761719	-115.558197
17398.828125	-115.563843
17441.894531	-115.620110
17484.960938	-115.589340
17528.027344	-115.577408
17571.093750	-115.575859
17614.160156	-115.638145
17657.226562	-115.604340
17700.292969	-115.553673
17743.359375	-115.582184
17786.425781	-115.585449
17829.492188	-115.504532
17872.558594	-115.581924
17915.625000	-115.525070
17958.691406	-115.548187
18001.757812	-115.614571
18044.824219	-115.691704
18087.890625	-115.596062
18130.957031	-115.425056
18174.023438	-115.510925
18217.089844	-115.576942
18260.156250	-115.650139
18303.222656	-115.602936
18346.289062	-115.582619
18389.355469	-115.502907
18432.421875	-115.604759
18475.488281	-115.725014
18518.554688	-115.635513
18561.621094	-115.513763
18604.687500	-115.535767
18647.753906	-115.558815
18690.820312	-115.485802
18733.886719	-115.478912
18776.953125	-115.498367
18820.019531	-115.520226
18863.085938	-115.559868
18906.152344	-115.554909
18949.218750	-115.520454
18992.285156	-115.514076
19035.351562	-115.481056
19078.417969	-115.593269
19121.484375	-115.536392
19164.550781	-115.514107
19207.617188	-115.608765
19250.683594	-115.618759
19293.750000	-115.583206
19336.816406	-115.686821
19379.882812	-115.761658
19422.949219	-115.774208
19466.015625	-115.600700
19509.082031	-115.570305
19552.148438	-115.526848
19595.214844	-115.523048
19638.281250	-115.585182
19681.347656	-115.735062
19724.414062	-115.657791
19767.480469	-115.627747
19810.546875	-115.632576
19853.613281	-115.837791
19896.679688	-116.262657
19939.746094	-117.085518
19982.812500	-118.584541
20025.878906	-120.984047
20068.945312	-124.381012
20112.011719	-129.011246
20155.078125	-134.915054
20198.144531	-143.045593
20241.210938	-153.416428
20284.277344	-162.192551
20327.343750	-170.105499
20370.410156	-175.716370
20413.476562	-179.168259
20456.542969	-181.732590
20499.609375	-184.267899
20542.675781	-186.321045
20585.742188	-186.597321
20628.808594	-186.757446
20671.875000	-188.198288
20714.941406	-188.854874
20758.007812	-189.844635
20801.074219	-191.248672
20844.140625	-192.014099
20887.207031	-192.322128
20930.273438	-193.182770
20973.339844	-191.771454
21016.406250	-188.343826
21059.472656	-186.409393
21102.539062	-184.891571
21145.605469	-186.413254
21188.671875	-190.059692
21231.738281	-191.923813
21274.804688	-192.220444
21317.871094	-191.023911
21360.937500	-190.033508
21404.003906	-190.687164
21447.070312	-190.103973
21490.136719	-187.604813
21533.203125	-188.927338
21576.269531	-192.058762
21619.335938	-192.873352
21662.402344	-191.050507
21705.468750	-190.075363
21748.535156	-192.123962
21791.601562	-191.891418
21834.667969	-191.799194
21877.734375	-191.497787
21920.800781	-189.825729
21963.867188	-189.896362
22006.933594	-189.664444
